LabVIEW Measurement	
Writer_Version	2
Reader_Version	2
Separator	Tab
Decimal_Separator	.
Multi_Headings	No
X_Columns	No
Time_Pref	Relative
Operator	Herve
Date	2023/08/02
Time	16:09:24.6377115249633789062
***End_of_Header***	
	
Channels	4				
Samples	4454	4454	4454	4454	
Date	1904/01/01	1904/01/01	1904/01/01	1904/01/01	
Time	09:00:00	09:00:00	09:00:00	09:00:00	
Y_Unit_Label	s	Hz	mV	°	
X_Dimension	Time	Time	Time	Time	
X0	0.0000000000000000E+0	0.0000000000000000E+0	0.0000000000000000E+0	0.0000000000000000E+0	
Delta_X	1.000000	1.000000	1.000000	1.000000	
***End_of_Header***					
X_Value	Time	Res.Frequency	Amplitude	Phase	Comment
	0.050003	1360.988988	22.328000	-4.500000
	0.150009	1360.985425	22.316000	-4.530000
	0.250014	1360.987801	22.330000	-4.480000
	0.350020	1360.991364	22.322000	-4.470000
	0.450026	1360.987801	22.326000	-4.530000
	0.550032	1360.987801	22.308000	-4.500000
	0.600034	1360.992552	22.322000	-4.460000
	0.750043	1360.988989	22.316000	-4.530000
	0.850049	1360.988989	22.304000	-4.500000
	0.950054	1360.990176	22.312000	-4.490000
	1.050060	1360.991364	22.318000	-4.490000
	1.150066	1360.990176	22.312000	-4.510000
	1.250072	1360.990176	22.312000	-4.510000
	1.350077	1360.987801	22.328000	-4.520000
	1.450083	1360.991364	22.306000	-4.470000
	1.550089	1360.990176	22.320000	-4.510000
	1.650095	1360.988989	22.310000	-4.510000
	1.750100	1360.991364	22.306000	-4.480000
	1.850106	1360.993739	22.292000	-4.480000
	1.950111	1360.988989	22.320000	-4.540000
	2.050117	1360.990176	22.314000	-4.490000
	2.150123	1360.990176	22.332000	-4.500000
	2.253129	1360.985426	22.344000	-4.540000
	2.349134	1360.986613	22.322000	-4.490000
	2.449140	1360.988989	22.322000	-4.480000
	2.549146	1360.994927	22.338000	-4.450000
	2.649151	1360.993740	22.330000	-4.510000
	2.749157	1360.986614	22.312000	-4.560000
	2.849163	1360.985426	22.330000	-4.510000
	2.949169	1360.983051	22.312000	-4.520000
	3.049174	1360.983051	22.312000	-4.520000
	3.149180	1360.981863	22.320000	-4.510000
	3.249186	1360.983051	22.320000	-4.490000
	3.349192	1360.984238	22.314000	-4.490000
	3.449197	1360.987801	22.308000	-4.470000
	3.549203	1360.980676	22.326000	-4.560000
	3.649209	1360.977113	22.312000	-4.530000
	3.749214	1360.980676	22.316000	-4.470000
	3.851220	1360.978300	22.344000	-4.520000
	3.949226	1360.972362	22.312000	-4.550000
	4.049232	1360.983052	22.324000	-4.410000
	4.149237	1360.985427	22.330000	-4.480000
	4.249243	1360.984239	22.314000	-4.510000
	4.349249	1360.990178	22.328000	-4.450000
	4.449255	1360.986615	22.314000	-4.530000
	4.549260	1360.988990	22.318000	-4.480000
	4.649266	1360.986615	22.320000	-4.520000
	4.799274	1360.986615	22.320000	-4.520000
	4.899280	1360.987802	22.286000	-4.490000
	4.999286	1360.987802	22.330000	-4.500000
	5.099292	1360.990178	22.334000	-4.480000
	5.199297	1360.988990	22.322000	-4.510000
	5.299303	1360.985427	22.318000	-4.530000
	5.399309	1360.986615	22.326000	-4.490000
	5.499314	1360.987803	22.310000	-4.490000
	5.599320	1360.992553	22.334000	-4.460000
	5.699326	1360.988990	22.304000	-4.530000
	5.799332	1360.992553	22.332000	-4.470000
	5.899337	1360.994929	22.296000	-4.480000
	5.999343	1360.997304	22.332000	-4.480000
	6.099349	1360.991366	22.330000	-4.550000
	6.199355	1360.993741	22.324000	-4.480000
	6.249357	1360.997304	22.314000	-4.470000
	6.399366	1360.993741	22.340000	-4.530000
	6.499372	1360.985428	22.322000	-4.570000
	6.599378	1360.985428	22.322000	-4.570000
	6.699383	1360.986616	22.322000	-4.490000
	6.799389	1360.985428	22.312000	-4.510000
	6.899395	1360.987803	22.324000	-4.480000
	6.999400	1360.986616	22.322000	-4.510000
	7.099406	1360.986616	22.316000	-4.500000
	7.199412	1360.986616	22.318000	-4.500000
	7.299417	1360.993742	22.314000	-4.440000
	7.399423	1360.996117	22.322000	-4.480000
	7.499429	1360.991367	22.312000	-4.540000
	7.599435	1360.987804	22.332000	-4.530000
	7.699440	1360.991367	22.314000	-4.470000
	7.801446	1360.997305	22.322000	-4.450000
	7.899452	1360.998493	22.328000	-4.490000
	7.999457	1361.003244	22.308000	-4.460000
	8.099463	1360.998493	22.322000	-4.540000
	8.199469	1360.998493	22.322000	-4.540000
	8.299475	1361.006807	22.318000	-4.430000
	8.399480	1361.007995	22.322000	-4.490000
	8.499486	1361.002057	22.322000	-4.550000
	8.599492	1361.003244	22.324000	-4.490000
	8.699498	1361.000869	22.314000	-4.520000
	8.799503	1360.998493	22.308000	-4.520000
	8.899509	1360.998493	22.312000	-4.500000
	8.999515	1360.994930	22.314000	-4.530000
	9.099521	1360.994930	22.316000	-4.500000
	9.199526	1360.994930	22.318000	-4.500000
	9.299532	1360.992555	22.318000	-4.520000
	9.401538	1360.988992	22.330000	-4.530000
	9.499543	1360.986617	22.322000	-4.520000
	9.599549	1360.990180	22.320000	-4.470000
	9.699555	1360.990180	22.334000	-4.500000
	9.799561	1360.992555	22.314000	-4.480000
	9.899566	1360.992555	22.314000	-4.480000
	9.999572	1360.987804	22.300000	-4.540000
	10.099578	1360.984241	22.314000	-4.530000
	10.199584	1360.980678	22.306000	-4.530000
	10.299589	1360.986617	22.318000	-4.450000
	10.399595	1360.986617	22.300000	-4.500000
	10.499600	1360.986617	22.310000	-4.500000
	10.601606	1360.986617	22.320000	-4.500000
	10.699612	1360.986617	22.336000	-4.500000
	10.804618	1360.986617	22.320000	-4.500000
	10.899623	1360.985429	22.328000	-4.510000
	10.999629	1360.986617	22.308000	-4.490000
	11.099635	1360.968803	22.198000	-4.650000
	11.199641	1360.971178	22.340000	-4.480000
	11.299646	1360.979492	22.318000	-4.430000
	11.399652	1360.980680	22.314000	-4.490000
	11.499658	1360.980680	22.338000	-4.500000
	11.599664	1360.988994	22.308000	-4.430000
	11.749672	1360.986619	22.290000	-4.520000
	11.849678	1360.998496	22.346000	-4.400000
	11.949684	1360.994933	22.326000	-4.530000
	12.054689	1361.002059	22.328000	-4.440000
	12.158695	1361.002059	22.328000	-4.440000
	12.249701	1361.002059	22.326000	-4.500000
	12.349706	1361.002059	22.326000	-4.500000
	12.458713	1360.999684	22.330000	-4.520000
	12.555718	1360.998496	22.312000	-4.510000
	12.653724	1360.997308	22.322000	-4.510000
	12.750729	1360.997308	22.330000	-4.500000
	12.849735	1360.997308	22.324000	-4.500000
	12.957741	1360.981869	22.312000	-4.630000
	13.049747	1360.979494	22.318000	-4.520000
	13.150752	1360.980682	22.322000	-4.490000
	13.249758	1360.983057	22.316000	-4.480000
	13.349763	1360.983057	22.338000	-4.500000
	13.449769	1360.985432	22.334000	-4.480000
	13.549775	1360.987808	22.338000	-4.480000
	13.649781	1360.987808	22.338000	-4.480000
	13.749786	1360.987808	22.324000	-4.500000
	13.849792	1360.985432	22.308000	-4.520000
	13.949798	1360.985432	22.322000	-4.500000
	14.049804	1360.992559	22.326000	-4.440000
	14.149809	1360.994934	22.328000	-4.480000
	14.249815	1360.996122	22.304000	-4.490000
	14.349821	1360.996122	22.322000	-4.500000
	14.449827	1360.996122	22.320000	-4.500000
	14.550832	1360.990183	22.312000	-4.550000
	14.649838	1360.991371	22.328000	-4.490000
	14.749844	1360.986621	22.324000	-4.540000
	14.849849	1360.990184	22.316000	-4.470000
	14.949855	1360.992559	22.298000	-4.480000
	15.099864	1360.992559	22.316000	-4.500000
	15.199870	1360.988996	22.312000	-4.530000
	15.300875	1360.990184	22.336000	-4.490000
	15.399881	1360.991371	22.326000	-4.490000
	15.499887	1360.991371	22.326000	-4.490000
	15.599892	1361.179203	21.672000	-2.920000
	15.699898	1361.166138	22.404000	-4.610000
	15.799904	1361.557931	21.416000	-1.210000
	15.899909	1361.181413	22.708000	-7.670000
	15.999915	1361.165972	22.224000	-4.630000
	16.100921	1361.160033	22.148000	-4.550000
	16.199926	1361.066220	22.722000	-5.290000
	16.299932	1361.279063	22.144000	-2.710000
	16.399938	1361.217303	22.258000	-5.020000
	16.499944	1361.159108	22.482000	-4.990000
	16.599949	1361.121102	22.316000	-4.820000
	16.699955	1361.118726	21.964000	-4.520000
	16.799961	1361.087847	22.324000	-4.760000
	16.899967	1361.098537	22.300000	-4.410000
	17.005973	1361.110415	22.406000	-4.400000
	17.099978	1361.090224	22.276000	-4.670000
	17.199984	1361.090224	22.276000	-4.670000
	17.299990	1361.048658	22.374000	-4.850000
	17.399995	1361.003531	22.462000	-4.880000
	17.500001	1361.011845	22.304000	-4.430000
	17.600007	1361.026098	22.142000	-4.380000
	17.700012	1361.040352	22.172000	-4.380000
	17.800018	1361.029662	22.330000	-4.590000
	17.900024	1360.813596	22.254000	-6.320000
	18.000030	1360.848039	22.356000	-4.210000
	18.100035	1360.880107	22.176000	-4.230000
	18.200041	1360.900298	22.312000	-4.330000
	18.300047	1360.723419	20.196000	-5.990000
	18.407053	1360.788747	22.334000	-3.950000
	18.500058	1360.826753	22.312000	-4.180000
	18.608064	1360.862384	22.296000	-4.200000
	18.700069	1360.894453	22.304000	-4.230000
	18.800076	1360.917019	22.312000	-4.310000
	18.900081	1360.917019	22.312000	-4.310000
	19.000087	1360.931271	22.322000	-4.380000
	19.100092	1360.867152	22.490000	-5.040000
	19.200098	1360.887343	22.320000	-4.330000
	19.300104	1360.851719	21.996000	-4.800000
	19.400110	1361.003838	22.092000	-3.220000
	19.500115	1361.145268	21.752000	-3.310000
	19.600121	1360.971919	21.150000	-5.960000
	19.700127	1360.974294	22.354000	-4.480000
	19.799132	1360.962418	22.314000	-4.600000
	19.900138	1360.964793	22.284000	-4.480000
	20.049147	1361.009933	22.422000	-4.120000
	20.149152	1360.956495	22.662000	-4.950000
	20.249158	1360.913746	22.398000	-4.860000
	20.349164	1360.916121	21.842000	-4.480000
	20.449170	1360.925622	21.902000	-4.420000
	20.549175	1361.305398	21.440000	-1.310000
	20.649181	1361.145088	21.842000	-5.850000
	20.749187	1361.051276	23.142000	-5.290000
	20.850193	1361.035836	22.274000	-4.630000
	20.949198	1361.008521	22.360000	-4.730000
	21.049204	1361.023962	22.808000	-4.370000
	21.149209	1361.165394	22.304000	-3.310000
	21.249216	1361.167770	22.584000	-4.480000
	21.399224	1361.125014	22.066000	-4.860000
	21.449227	1361.102447	22.212000	-4.690000
	21.599236	1361.116702	22.522000	-4.380000
	21.703241	1361.094135	22.494000	-4.690000
	21.800247	1361.059694	22.332000	-4.790000
	21.899252	1361.011004	22.230000	-4.910000
	21.999259	1360.995565	22.128000	-4.630000
	22.099264	1361.040705	22.368000	-4.120000
	22.249273	1361.052583	22.326000	-4.400000
	22.349278	1361.139320	22.448000	-3.770000
	22.449284	1361.364085	22.392000	-2.610000
	22.499287	1362.207286	20.306000	2.540000
	22.649295	1362.912961	20.250000	1.400000
	22.700298	1363.401113	20.316000	-0.410000
	22.856308	1363.870242	20.022000	-0.570000
	22.949313	1363.963115	20.116000	-3.720000
	23.049318	1363.929791	20.702000	-4.780000
	23.149324	1363.965503	20.394000	-4.200000
	23.251330	1363.727557	18.916000	-6.500000
	23.399338	1363.834715	20.392000	-3.600000
	23.499344	1363.872806	20.130000	-4.180000
	23.600350	1363.901374	20.288000	-4.260000
	23.699356	1363.788339	20.188000	-5.450000
	23.799361	1363.590865	20.192000	-6.160000
	23.899367	1363.250679	19.778000	-7.360000
	23.999372	1363.250679	19.778000	-7.360000
	24.099379	1363.033071	20.010000	-6.330000
	24.199384	1362.915353	20.074000	-5.490000
	24.299390	1362.873731	19.918000	-4.850000
	24.399395	1362.864216	19.566000	-4.580000
	24.499401	1362.848756	19.600000	-4.630000
	24.599407	1362.958226	19.548000	-3.580000
	24.699413	1362.998672	19.660000	-4.160000
	24.799418	1362.606288	19.864000	-7.800000
	24.899424	1362.687174	19.448000	-3.820000
	25.006430	1362.911002	20.044000	-2.620000
	25.099436	1362.947877	19.632000	-4.190000
	25.199441	1362.935984	19.682000	-4.600000
	25.299447	1362.919334	19.628000	-4.640000
	25.399453	1362.901494	19.588000	-4.650000
	25.499458	1362.826582	19.594000	-5.130000
	25.599464	1362.712447	19.822000	-5.460000
	25.699470	1362.628037	19.786000	-5.210000
	25.849479	1362.589990	19.652000	-4.820000
	25.949484	1362.512718	19.922000	-5.150000
	26.049490	1362.431885	19.718000	-5.180000
	26.149496	1362.364130	19.724000	-5.070000
	26.249501	1362.305885	19.726000	-4.990000
	26.349507	1362.258339	19.744000	-4.900000
	26.449513	1362.217926	19.704000	-4.840000
	26.599522	1361.992166	19.322000	-6.400000
	26.699527	1361.992166	19.322000	-6.400000
	26.799533	1362.011184	19.740000	-4.340000
	26.899539	1362.101552	19.670000	-3.740000
	26.999544	1362.005298	19.808000	-5.310000
	27.099550	1362.020750	19.718000	-4.370000
	27.199556	1362.021939	19.782000	-4.490000
	27.299562	1362.006488	19.746000	-4.630000
	27.404567	1361.991038	19.738000	-4.630000
	27.511574	1362.004112	19.704000	-4.390000
	27.599578	1362.004112	19.704000	-4.390000
	27.699584	1361.985096	19.778000	-4.660000
	27.799590	1361.947068	19.754000	-4.820000
	27.899596	1361.942314	19.764000	-4.540000
	28.002602	1361.912604	19.748000	-4.750000
	28.099607	1361.957775	19.676000	-4.120000
	28.199613	1361.939948	19.686000	-4.650000
	28.299619	1361.912614	19.650000	-4.730000
	28.412625	1361.901918	19.608000	-4.590000
	28.502630	1361.899541	19.620000	-4.520000
	28.599636	1361.922125	19.470000	-4.310000
	28.699642	1361.914994	19.578000	-4.560000
	28.799647	1361.919748	19.564000	-4.460000
	28.899653	1361.901921	19.588000	-4.650000
	29.049662	1361.897168	19.558000	-4.540000
	29.149667	1361.886472	19.626000	-4.590000
	29.249673	1362.078000	20.058000	-2.890000
	29.349679	1362.034027	19.584000	-4.870000
	29.499687	1361.995997	19.558000	-4.820000
	29.599693	1361.965098	19.556000	-4.760000
	29.699699	1361.944894	19.582000	-4.670000
	29.799705	1361.922314	19.576000	-4.690000
	29.949713	1361.905676	19.582000	-4.640000
	30.049719	1361.885473	19.576000	-4.670000
	30.149724	1361.871212	19.584000	-4.620000
	30.249730	1361.859328	19.564000	-4.600000
	30.401739	1361.859328	19.564000	-4.600000
	30.499744	1361.852197	19.558000	-4.560000
	30.599750	1361.845067	19.576000	-4.560000
	30.699756	1361.835560	19.586000	-4.580000
	30.799762	1361.821299	19.590000	-4.620000
	30.899767	1361.812981	19.578000	-4.570000
	30.999773	1361.808227	19.586000	-4.540000
	31.099779	1361.801097	19.590000	-4.560000
	31.199784	1361.801097	19.568000	-4.500000
	31.299790	1361.788025	19.580000	-4.610000
	31.402796	1361.785649	19.584000	-4.520000
	31.499802	1361.783272	19.574000	-4.520000
	31.599807	1361.789214	19.588000	-4.450000
	31.699813	1361.784460	19.580000	-4.540000
	31.799819	1361.777330	19.576000	-4.560000
	31.899825	1361.777330	19.574000	-4.500000
	31.999830	1361.780895	19.586000	-4.470000
	32.099836	1361.782084	19.586000	-4.490000
	32.249845	1361.789214	19.564000	-4.440000
	32.349850	1361.782084	19.578000	-4.560000
	32.449856	1361.776142	19.604000	-4.550000
	32.549862	1361.776142	19.604000	-4.550000
	32.649868	1361.753565	19.604000	-4.690000
	32.749873	1361.613392	20.128000	-5.680000
	32.849879	1360.467951	20.056000	-14.090000
	32.949884	1360.700939	19.544000	-2.540000
	33.049891	1360.892301	19.566000	-2.890000
	33.149896	1361.049183	19.596000	-3.180000
	33.249902	1361.172777	19.624000	-3.460000
	33.349907	1361.269033	19.536000	-3.690000
	33.449913	1361.352218	19.554000	-3.800000
	33.549919	1361.239394	20.268000	-5.450000
	33.649925	1361.321388	19.536000	-3.810000
	33.749930	1361.412899	19.484000	-3.730000
	33.854937	1361.598408	19.548000	-2.940000
	33.949942	1361.547323	19.378000	-4.930000
	34.049948	1361.669773	19.650000	-3.470000
	34.149953	1361.748226	19.524000	-3.840000
	34.249959	1361.819548	19.518000	-3.900000
	34.349965	1361.875416	19.534000	-4.030000
	34.449970	1361.918208	19.504000	-4.140000
	34.549976	1362.045451	19.942000	-3.430000
	34.649982	1362.050206	19.642000	-4.460000
	34.799990	1362.000292	19.888000	-4.920000
	34.899996	1362.000292	19.888000	-4.920000
	35.000002	1361.933747	19.620000	-5.060000
	35.100008	1362.512784	18.190000	0.350000
	35.200013	1362.707976	19.430000	-2.860000
	35.300019	1362.585531	19.480000	-5.530000
	35.400025	1362.518957	19.508000	-5.060000
	35.500031	1362.488046	19.508000	-4.760000
	35.600036	1362.455946	19.496000	-4.770000
	35.700042	1362.425037	19.496000	-4.760000
	35.800047	1362.395316	19.470000	-4.750000
	35.900054	1362.343013	19.562000	-4.940000
	36.000059	1362.308540	19.474000	-4.790000
	36.107065	1362.271690	19.514000	-4.810000
	36.200070	1362.244350	19.518000	-4.730000
	36.303076	1362.225331	19.500000	-4.660000
	36.400082	1362.207501	19.496000	-4.650000
	36.500088	1362.186105	19.504000	-4.680000
	36.600093	1362.171841	19.504000	-4.620000
	36.700099	1362.171841	19.504000	-4.620000
	36.800105	1362.145691	19.526000	-4.720000
	36.900111	1362.133805	19.532000	-4.600000
	37.000116	1362.111222	19.590000	-4.690000
	37.100122	1362.101713	19.500000	-4.580000
	37.200128	1362.082696	19.574000	-4.660000
	37.299133	1362.096960	19.592000	-4.380000
	37.399139	1362.395831	19.590000	-1.990000
	37.499145	1362.330454	19.546000	-5.050000
	37.599151	1362.281719	19.520000	-4.910000
	37.699156	1362.238928	19.550000	-4.860000
	37.804163	1362.194949	19.526000	-4.870000
	37.901168	1362.161668	19.538000	-4.780000
	37.999173	1362.139085	19.532000	-4.690000
	38.099179	1362.117690	19.524000	-4.680000
	38.199185	1362.103427	19.534000	-4.620000
	38.302191	1362.087975	19.538000	-4.630000
	38.403196	1362.077277	19.524000	-4.590000
	38.501202	1362.072523	19.570000	-4.540000
	38.649210	1362.065391	19.560000	-4.560000
	38.749216	1362.055883	19.540000	-4.580000
	38.849222	1362.049940	19.546000	-4.550000
	38.949228	1362.036866	19.542000	-4.610000
	39.049233	1362.033300	19.524000	-4.530000
	39.149239	1362.041620	19.530000	-4.430000
	39.252245	1362.038054	19.540000	-4.530000
	39.349251	1362.029735	19.552000	-4.570000
	39.499259	1362.026169	19.520000	-4.530000
	39.599265	1362.026169	19.520000	-4.530000
	39.699271	1362.029735	19.558000	-4.470000
	39.799276	1362.030923	19.548000	-4.490000
	39.899282	1362.029735	19.542000	-4.510000
	39.999288	1362.026169	19.542000	-4.530000
	40.100294	1362.023792	19.548000	-4.520000
	40.199299	1362.020226	19.552000	-4.530000
	40.299305	1362.021415	19.524000	-4.490000
	40.399311	1362.020226	19.522000	-4.510000
	40.499316	1362.022603	19.546000	-4.480000
	40.599322	1362.020226	19.540000	-4.520000
	40.649325	1362.023792	19.532000	-4.470000
	40.799334	1362.016660	19.566000	-4.560000
	40.899339	1362.014283	19.550000	-4.520000
	41.004345	1362.008341	19.558000	-4.550000
	41.099351	1362.010718	19.542000	-4.480000
	41.199357	1362.009529	19.542000	-4.510000
	41.299362	1362.008341	19.542000	-4.510000
	41.399368	1362.008341	19.530000	-4.500000
	41.499373	1362.007152	19.534000	-4.510000
	41.599380	1362.009529	19.540000	-4.480000
	41.699385	1362.004775	19.544000	-4.540000
	41.799391	1362.097521	19.076000	-3.720000
	41.949399	1362.070185	19.238000	-4.730000
	42.049405	1362.058299	19.550000	-4.600000
	42.149411	1362.058299	19.550000	-4.600000
	42.249416	1361.965612	19.210000	-5.280000
	42.349422	1362.000084	19.592000	-4.210000
	42.449428	1362.010782	19.542000	-4.410000
	42.549434	1362.009593	19.518000	-4.510000
	42.649439	1361.998897	19.550000	-4.590000
	42.749445	1361.985823	19.550000	-4.610000
	42.849451	1361.998898	19.506000	-4.390000
	42.949457	1362.023860	19.496000	-4.290000
	43.049462	1362.047634	19.522000	-4.300000
	43.149468	1362.078542	19.488000	-4.240000
	43.251474	1362.117773	19.504000	-4.170000
	43.349479	1362.159383	19.468000	-4.150000
	43.449485	1362.203373	19.456000	-4.130000
	43.549491	1362.262825	19.430000	-4.000000
	43.649497	1362.319901	19.432000	-4.020000
	43.749502	1362.379357	19.430000	-4.000000
	43.849508	1362.435248	19.370000	-4.030000
	43.949514	1362.500658	19.376000	-3.950000
	44.049520	1362.562502	19.354000	-3.980000
	44.149525	1362.562502	19.354000	-3.980000
	44.249531	1362.605316	19.262000	-4.140000
	44.349536	1362.421085	19.604000	-6.050000
	44.449543	1362.573380	19.366000	-3.220000
	44.549548	1362.659024	19.454000	-3.780000
	44.649554	1362.723255	19.302000	-3.960000
	44.749559	1362.772022	19.314000	-4.090000
	44.849565	1362.808894	19.326000	-4.190000
	44.952571	1362.836250	19.336000	-4.270000
	45.049577	1362.869555	19.348000	-4.220000
	45.151583	1362.845770	19.426000	-4.700000
	45.249588	1363.001686	19.418000	-3.190000
	45.349594	1363.030235	19.176000	-4.260000
	45.449600	1363.014773	19.302000	-4.630000
	45.549605	1362.993365	19.356000	-4.680000
	45.649611	1362.974335	19.262000	-4.660000
	45.799620	1362.973145	19.332000	-4.510000
	45.899625	1362.973145	19.312000	-4.500000
	45.999631	1362.967198	19.316000	-4.550000
	46.099637	1362.962441	19.336000	-4.540000
