LabVIEW Measurement	
Writer_Version	2
Reader_Version	2
Separator	Tab
Decimal_Separator	.
Multi_Headings	No
X_Columns	No
Time_Pref	Relative
Operator	Herve
Date	2023/08/01
Time	17:46:46.9164776802062988281
***End_of_Header***	
	
Channels	4				
Samples	3861	3861	3861	3861	
Date	1904/01/01	1904/01/01	1904/01/01	1904/01/01	
Time	09:00:00	09:00:00	09:00:00	09:00:00	
Y_Unit_Label	s	Hz	mV	°	
X_Dimension	Time	Time	Time	Time	
X0	0.0000000000000000E+0	0.0000000000000000E+0	0.0000000000000000E+0	0.0000000000000000E+0	
Delta_X	1.000000	1.000000	1.000000	1.000000	
***End_of_Header***					
X_Value	Time	Res.Frequency	Amplitude	Phase	Comment
	0.050003	1361.712701	11.822000	-4.880000
	0.155009	1361.730527	11.794000	-4.750000
	0.250014	1361.736469	11.830000	-4.850000
	0.350020	1361.736469	11.830000	-4.850000
	0.450026	1361.737657	11.802000	-4.890000
	0.550031	1361.735281	11.820000	-4.920000
	0.650037	1361.731716	11.816000	-4.930000
	0.750043	1361.730527	11.826000	-4.910000
	0.850049	1361.724586	11.814000	-4.950000
	0.950054	1361.726963	11.804000	-4.880000
	1.050060	1361.729339	11.802000	-4.880000
	1.162066	1361.726963	11.816000	-4.920000
	1.250072	1361.734093	11.824000	-4.840000
	1.350077	1361.734093	11.824000	-4.840000
	1.450083	1361.728151	11.820000	-4.950000
	1.550088	1361.723398	11.804000	-4.940000
	1.650095	1361.721021	11.802000	-4.920000
	1.757101	1361.724586	11.834000	-4.870000
	1.850106	1361.719833	11.800000	-4.940000
	1.957112	1361.728152	11.808000	-4.830000
	2.061118	1361.725775	11.826000	-4.920000
	2.178124	1361.736470	11.824000	-4.810000
	2.251129	1361.736470	11.824000	-4.810000
	2.350134	1361.742412	11.798000	-4.850000
	2.451140	1361.732906	11.822000	-4.980000
	2.600149	1361.728153	11.816000	-4.940000
	2.700154	1361.735283	11.842000	-4.840000
	2.800160	1361.730529	11.834000	-4.940000
	2.900166	1361.713894	11.834000	-5.040000
	3.000172	1361.707952	11.808000	-4.950000
	3.100177	1361.711517	11.822000	-4.870000
	3.200183	1361.703199	11.818000	-4.970000
	3.300189	1361.705576	11.796000	-4.880000
	3.400194	1361.707953	11.808000	-4.880000
	3.508201	1361.715083	11.798000	-4.840000
	3.600206	1361.725778	11.806000	-4.810000
	3.700212	1361.736473	11.790000	-4.810000
	3.800217	1361.736473	11.790000	-4.810000
	3.900223	1361.737662	11.830000	-4.890000
	4.001229	1361.731720	11.820000	-4.950000
	4.100235	1361.735285	11.816000	-4.870000
	4.200240	1361.734097	11.802000	-4.910000
	4.300246	1361.729344	11.818000	-4.940000
	4.401252	1361.735285	11.818000	-4.850000
	4.500257	1361.721026	11.814000	-5.020000
	4.601263	1361.721026	11.824000	-4.900000
	4.700269	1361.719838	11.822000	-4.910000
	4.800274	1361.719838	11.822000	-4.910000
	4.900280	1361.710331	11.808000	-4.980000
	5.000286	1361.698449	11.826000	-5.000000
	5.100292	1361.705579	11.810000	-4.840000
	5.200297	1361.719839	11.826000	-4.780000
	5.300303	1361.706768	11.810000	-5.010000
	5.410309	1361.719840	11.798000	-4.790000
	5.500315	1361.724594	11.828000	-4.860000
	5.600320	1361.729347	11.826000	-4.860000
	5.700326	1361.734101	11.842000	-4.860000
	5.800332	1361.734101	11.842000	-4.860000
	5.950340	1361.735289	11.824000	-4.890000
	6.050346	1361.718653	11.826000	-5.040000
	6.150352	1361.712712	11.818000	-4.950000
	6.250358	1361.715088	11.814000	-4.880000
	6.350363	1361.707959	11.810000	-4.960000
	6.450369	1361.713900	11.814000	-4.850000
	6.550375	1361.725784	11.814000	-4.800000
	6.650380	1361.723408	11.830000	-4.920000
	6.750386	1361.719843	11.820000	-4.930000
	6.853392	1361.717466	11.826000	-4.920000
	6.950397	1361.707960	11.828000	-4.980000
	7.050403	1361.704395	11.824000	-4.930000
	7.150409	1361.707960	11.802000	-4.870000
	7.250415	1361.713901	11.812000	-4.850000
	7.350420	1361.713901	11.812000	-4.850000
	7.450426	1361.721032	11.814000	-4.840000
	7.550432	1361.716278	11.810000	-4.940000
	7.650437	1361.721032	11.808000	-4.860000
	7.750443	1361.723408	11.820000	-4.880000
	7.850449	1361.715090	11.822000	-4.970000
	7.950455	1361.722220	11.806000	-4.840000
	8.050460	1361.723409	11.826000	-4.890000
	8.150466	1361.721032	11.836000	-4.920000
	8.250472	1361.719844	11.806000	-4.910000
	8.350478	1361.715091	11.832000	-4.940000
	8.450483	1361.718656	11.812000	-4.870000
	8.550489	1361.717467	11.806000	-4.910000
	8.650495	1361.725786	11.822000	-4.830000
	8.750501	1361.726974	11.816000	-4.890000
	8.850506	1361.726974	11.820000	-4.900000
	8.953512	1361.731728	11.816000	-4.860000
	9.050518	1361.731728	11.816000	-4.860000
	9.150523	1361.732916	11.830000	-4.890000
	9.250529	1361.723410	11.822000	-4.980000
	9.350535	1361.712715	11.816000	-4.990000
	9.450541	1361.718657	11.806000	-4.850000
	9.550546	1361.728164	11.810000	-4.820000
	9.650552	1361.725787	11.830000	-4.920000
	9.749557	1361.735294	11.826000	-4.820000
	9.849563	1361.721035	11.816000	-5.020000
	9.949569	1361.709152	11.824000	-5.000000
	10.049575	1361.705587	11.804000	-4.930000
	10.149580	1361.709152	11.814000	-4.870000
	10.250587	1361.715094	11.816000	-4.850000
	10.349592	1361.715094	11.816000	-4.850000
	10.449597	1361.709152	11.824000	-4.950000
	10.549603	1361.717471	11.824000	-4.830000
	10.656610	1361.719847	11.814000	-4.880000
	10.750615	1361.721036	11.824000	-4.890000
	10.849620	1361.721036	11.824000	-4.900000
	10.949626	1361.726977	11.826000	-4.850000
	11.049632	1361.723413	11.824000	-4.930000
	11.149638	1361.716283	11.804000	-4.960000
	11.249643	1361.721036	11.806000	-4.860000
	11.349649	1361.721036	11.806000	-4.900000
	11.449655	1361.713906	11.820000	-4.960000
	11.549661	1361.713906	11.814000	-4.900000
	11.649666	1361.719848	11.820000	-4.850000
	11.749672	1361.713907	11.810000	-4.950000
	11.849678	1361.713907	11.810000	-4.950000
	11.949683	1361.705589	11.828000	-4.970000
	12.049689	1361.698459	11.826000	-4.960000
	12.199697	1361.700836	11.836000	-4.880000
	12.299704	1361.707966	11.808000	-4.840000
	12.399709	1361.710342	11.818000	-4.880000
	12.499715	1361.706777	11.826000	-4.930000
	12.599720	1361.704401	11.788000	-4.920000
	12.700727	1361.713908	11.810000	-4.820000
	12.799732	1361.710343	11.822000	-4.930000
	12.899738	1361.711531	11.814000	-4.890000
	13.001744	1361.716284	11.816000	-4.860000
	13.099749	1361.726980	11.816000	-4.810000
	13.199755	1361.755503	11.880000	-4.660000
	13.299761	1361.755503	11.880000	-4.660000
	13.399766	1361.765010	11.826000	-4.820000
	13.499772	1361.893429	11.804000	-3.820000
	13.599778	1361.803129	11.664000	-5.660000
	13.699783	1361.989882	11.386000	-3.330000
	13.799789	1361.964925	11.312000	-5.110000
	13.899795	1361.896005	11.770000	-5.480000
	14.008801	1361.818772	11.846000	-5.550000
	14.099806	1361.792630	11.698000	-5.120000
	14.199812	1361.859198	11.830000	-4.340000
	14.299818	1361.859198	11.830000	-4.340000
	14.399824	1361.846125	11.856000	-5.010000
	14.549832	1361.829488	11.588000	-5.040000
	14.649838	1361.872279	11.600000	-4.540000
	14.749844	1361.847323	11.812000	-5.110000
	14.849849	1361.779597	11.830000	-5.470000
	14.949855	1361.742762	11.646000	-5.210000
	15.049861	1361.767720	11.790000	-4.690000
	15.149867	1361.739202	11.702000	-5.140000
	15.249872	1361.759405	11.784000	-4.730000
	15.351878	1361.759405	11.784000	-4.730000
	15.399881	1361.730887	11.848000	-5.140000
	15.549890	1361.708311	11.768000	-5.090000
	15.649895	1361.679794	11.966000	-5.140000
	15.749901	1361.691677	11.836000	-4.800000
	15.849906	1362.659242	10.698000	3.160000
	15.949912	1364.281960	10.334000	8.420000
	16.049918	1365.598175	10.586000	5.970000
	16.149924	1366.561171	10.546000	3.100000
	16.249929	1367.402718	10.392000	2.100000
	16.349935	1367.402718	10.392000	2.100000
	16.449941	1368.112298	10.306000	1.010000
	16.549947	1368.779824	10.088000	0.660000
	16.649952	1369.155784	10.306000	-1.760000
	16.749958	1369.111583	10.156000	-5.270000
	16.849964	1369.505663	10.148000	-1.610000
	16.949969	1369.889035	10.116000	-1.700000
	17.049975	1370.323053	10.160000	-1.280000
	17.149981	1370.839199	9.860000	-0.600000
	17.255987	1371.094362	9.722000	-2.770000
	17.361993	1371.333969	9.706000	-2.900000
	17.449998	1371.333969	9.706000	-2.900000
	17.550004	1371.498048	9.710000	-3.530000
	17.650010	1371.644165	9.536000	-3.680000
	17.750015	1371.595097	9.564000	-5.310000
	17.850021	1371.557996	9.690000	-5.210000
	17.950027	1371.361790	9.878000	-6.540000
	18.050033	1371.286413	9.654000	-5.530000
	18.150038	1371.063934	9.762000	-6.760000
	18.253044	1370.846274	9.744000	-6.720000
	18.350049	1370.604737	9.702000	-6.920000
	18.450055	1370.604737	9.702000	-6.920000
	18.551061	1370.378782	9.736000	-6.790000
	18.650067	1370.108639	9.768000	-7.160000
	18.750072	1369.881572	9.772000	-6.800000
	18.850078	1369.644983	9.794000	-6.880000
	18.950084	1369.478913	9.814000	-6.290000
	19.050089	1369.360638	9.822000	-5.890000
	19.200098	1369.262677	9.850000	-5.720000
	19.300104	1369.198165	9.842000	-5.440000
	19.350107	1369.163519	9.812000	-5.190000
	19.500115	1369.106178	9.784000	-5.380000
	19.600121	1369.040479	9.782000	-5.450000
	19.650124	1369.040479	9.782000	-5.450000
	19.801133	1368.956871	9.770000	-5.600000
	19.900138	1368.864909	9.786000	-5.670000
	20.003144	1368.763401	9.846000	-5.750000
	20.100150	1368.758624	9.794000	-4.940000
	20.200155	1368.818361	9.828000	-4.400000
	20.300161	1368.775365	9.768000	-5.260000
	20.400167	1368.709682	9.776000	-5.450000
	20.500173	1368.634451	9.804000	-5.530000
	20.600178	1368.555643	9.844000	-5.560000
	20.650181	1368.555643	9.844000	-5.560000
	20.800189	1368.534147	9.882000	-5.080000
	20.900196	1368.517428	9.818000	-5.040000
	21.000201	1368.473247	9.784000	-5.270000
	21.100207	1368.375350	9.784000	-5.720000
	21.200212	1368.281040	9.906000	-5.690000
	21.300218	1368.335978	9.788000	-4.440000
	21.400224	1368.313292	9.828000	-5.090000
	21.500230	1368.263149	9.796000	-5.320000
	21.604236	1368.202265	9.812000	-5.410000
	21.700241	1368.202265	9.812000	-5.410000
	21.800247	1368.165257	9.852000	-5.210000
	21.900253	1368.159287	9.846000	-4.950000
	22.000258	1368.155705	9.806000	-4.930000
	22.100264	1368.115117	9.808000	-5.240000
	22.200270	1368.080497	9.864000	-5.190000
	22.300275	1368.069753	9.868000	-4.990000
	22.400281	1368.061396	9.824000	-4.970000
	22.501287	1368.036327	9.792000	-5.110000
	22.603293	1368.000517	9.832000	-5.200000
	22.701298	1367.994548	9.880000	-4.950000
	22.800304	1367.994548	9.880000	-4.950000
	22.900310	1367.990966	9.822000	-4.930000
	23.000316	1367.970673	9.794000	-5.070000
	23.100321	1367.947993	9.824000	-5.090000
	23.200327	1367.949187	9.878000	-4.890000
	23.300333	1367.955156	9.828000	-4.850000
	23.400338	1367.945606	9.804000	-4.980000
	23.503344	1367.912185	9.810000	-5.180000
	23.600350	1367.907410	9.850000	-4.940000
	23.700356	1367.914572	9.834000	-4.840000
	23.800361	1367.914572	9.834000	-4.840000
	23.900367	1367.908604	9.790000	-4.950000
	24.000373	1367.866829	9.826000	-5.250000
	24.100379	1367.872798	9.854000	-4.850000
	24.200384	1367.884735	9.818000	-4.800000
	24.300390	1367.881154	9.812000	-4.930000
	24.400395	1367.857282	9.828000	-5.100000
	24.510402	1367.864445	9.852000	-4.840000
	24.600407	1367.879963	9.818000	-4.770000
	24.700413	1367.854898	9.816000	-5.110000
	24.800418	1367.835800	9.838000	-5.060000
	24.950427	1367.835800	9.838000	-5.060000
	25.050433	1367.853706	9.860000	-4.750000
	25.150438	1367.842964	9.800000	-4.990000
	25.250444	1367.805965	9.828000	-5.210000
	25.350450	1367.803577	9.864000	-4.920000
	25.450456	1367.816708	9.828000	-4.790000
	25.550461	1367.798805	9.808000	-5.050000
	25.650467	1367.770160	9.850000	-5.140000
	25.750473	1367.772547	9.856000	-4.880000
	25.850479	1367.772547	9.856000	-4.880000
	25.950484	1367.794034	9.806000	-4.720000
	26.050490	1367.763003	9.812000	-5.160000
	26.150496	1367.740327	9.856000	-5.090000
	26.250501	1367.755844	9.848000	-4.770000
	26.351507	1367.737941	9.812000	-5.050000
	26.450513	1367.723619	9.858000	-5.020000
	26.550519	1367.733168	9.846000	-4.820000
	26.650524	1367.733168	9.802000	-4.900000
	26.750530	1367.692592	9.814000	-5.240000
	26.857536	1367.704528	9.854000	-4.800000
	26.950541	1367.715270	9.824000	-4.810000
	27.050547	1367.715270	9.824000	-4.810000
	27.149553	1367.705722	9.818000	-4.980000
	27.249558	1367.693787	9.834000	-5.000000
	27.399567	1367.698561	9.838000	-4.860000
	27.499573	1367.702142	9.816000	-4.870000
	27.599578	1367.674693	9.822000	-5.130000
	27.699584	1367.684242	9.858000	-4.820000
	27.800590	1367.692597	9.810000	-4.830000
	27.899596	1367.673501	9.840000	-5.060000
	27.999601	1367.666340	9.856000	-4.960000
	28.099607	1367.683051	9.818000	-4.760000
	28.199613	1367.671116	9.810000	-5.000000
	28.300619	1367.671116	9.810000	-5.000000
	28.399624	1367.673503	9.850000	-4.880000
	28.499630	1367.693794	9.806000	-4.730000
	28.599636	1367.672312	9.804000	-5.080000
	28.699642	1367.667538	9.858000	-4.940000
	28.799647	1367.686636	9.836000	-4.740000
	28.899653	1367.678281	9.800000	-4.970000
	28.999659	1367.660380	9.838000	-5.050000
	29.099664	1367.685446	9.840000	-4.690000
	29.201670	1367.690220	9.812000	-4.860000
	29.299676	1367.683059	9.830000	-4.960000
	29.399682	1367.683059	9.830000	-4.960000
	29.499687	1367.691414	9.846000	-4.830000
	29.599693	1367.696188	9.804000	-4.860000
	29.699699	1367.673513	9.816000	-5.090000
	29.799705	1367.681868	9.864000	-4.830000
	29.899710	1367.698578	9.814000	-4.760000
	29.999716	1367.647264	9.802000	-5.330000
	30.099721	1367.671137	9.790000	-4.700000
	30.199727	1367.668750	9.716000	-4.920000
	30.299733	1367.636528	9.806000	-5.170000
	30.399739	1367.636528	9.806000	-5.170000
	30.499744	1367.618627	9.854000	-5.050000
	30.599750	1367.638918	9.816000	-4.730000
	30.699756	1367.609083	9.792000	-5.150000
	30.799762	1367.592376	9.842000	-5.040000
	30.899767	1367.605504	9.788000	-4.790000
	30.999773	1367.603118	9.764000	-4.920000
	31.101779	1367.562545	9.790000	-5.240000
	31.199784	1367.631784	9.784000	-4.320000
	31.299790	1367.636558	9.732000	-4.860000
	31.399796	1367.636558	9.732000	-4.860000
	31.499802	1367.656849	9.780000	-4.730000
	31.599807	1367.728481	9.768000	-4.300000
	31.699813	1367.778620	9.686000	-4.480000
	31.799819	1367.821598	9.744000	-4.540000
	31.899825	1367.915935	9.738000	-4.110000
	31.999830	1368.125062	9.516000	-3.150000
	32.108837	1368.147749	9.758000	-4.710000
	32.199841	1368.166853	9.848000	-4.740000
	32.299848	1368.193123	9.766000	-4.680000
	32.399853	1368.193123	9.766000	-4.680000
	32.499859	1368.213422	9.696000	-4.730000
	32.649868	1368.246858	9.744000	-4.620000
	32.749873	1368.264769	9.740000	-4.750000
	32.849879	1368.287458	9.718000	-4.710000
	32.949884	1368.236122	9.682000	-5.330000
	33.049891	1368.213438	9.752000	-5.090000
	33.149896	1368.267179	9.736000	-4.450000
	33.249902	1368.329285	9.684000	-4.380000
	33.349907	1368.267205	9.608000	-5.420000
	33.450913	1368.310197	9.740000	-4.540000
	33.552919	1368.310197	9.740000	-4.540000
	33.650925	1368.375889	9.740000	-4.350000
	33.749930	1368.399774	9.706000	-4.700000
	33.849936	1368.485785	9.782000	-4.180000
	33.949942	1368.438023	9.852000	-5.300000
	34.049947	1368.552724	9.618000	-3.940000
	34.152954	1368.549141	9.704000	-4.930000
	34.249959	1368.507347	9.602000	-5.250000
	34.349965	1368.450034	9.752000	-5.380000
	34.452971	1368.450034	9.752000	-5.380000
	34.549976	1368.444063	9.772000	-4.950000
	34.649982	1368.460783	9.764000	-4.760000
	34.749988	1368.426155	9.708000	-5.190000
	34.849993	1368.378395	9.766000	-5.300000
	34.949999	1368.379589	9.806000	-4.890000
	35.050004	1368.381978	9.768000	-4.880000
	35.150011	1368.376007	9.722000	-4.950000
	35.250016	1368.347351	9.756000	-5.140000
	35.350022	1368.342574	9.812000	-4.940000
	35.460028	1368.381986	9.762000	-4.570000
	35.550033	1368.395122	9.704000	-4.790000
	35.650039	1368.395122	9.704000	-4.790000
	35.750045	1368.398705	9.724000	-4.870000
	35.850050	1368.423784	9.778000	-4.690000
	35.950056	1368.481118	9.758000	-4.420000
	36.050062	1368.522923	9.698000	-4.550000
	36.150068	1368.593405	9.690000	-4.310000
	36.250073	1368.586239	9.768000	-4.960000
	36.352079	1368.600572	9.764000	-4.780000
	36.450085	1368.684204	9.744000	-4.200000
	36.550090	1368.684204	9.744000	-4.200000
	36.650096	1368.815668	9.500000	-3.800000
	36.750102	1368.777448	9.658000	-5.220000
	36.850108	1368.675947	9.904000	-5.750000
	36.950113	1368.655644	9.520000	-5.070000
	37.053119	1368.529084	9.590000	-5.960000
	37.150125	1368.509977	9.662000	-5.060000
	37.250131	1368.487288	9.722000	-5.090000
	37.354136	1368.488482	9.750000	-4.890000
	37.450142	1368.505203	9.776000	-4.760000
	37.550148	1368.542230	9.752000	-4.590000
	37.650153	1368.570896	9.708000	-4.660000
	37.750159	1368.556565	9.728000	-5.020000
	37.850165	1368.556565	9.728000	-5.020000
	37.950171	1368.543428	9.748000	-5.010000
	38.050176	1368.555371	9.786000	-4.800000
	38.150182	1368.580454	9.780000	-4.690000
	38.254188	1368.604342	9.744000	-4.700000
	38.350194	1368.606731	9.696000	-4.880000
	38.450199	1368.586429	9.712000	-5.070000
	38.550205	1368.556574	9.718000	-5.150000
	38.650210	1368.544632	9.782000	-5.000000
	38.750216	1368.556575	9.780000	-4.800000
	38.850222	1368.588825	9.744000	-4.630000
	38.950228	1368.601963	9.708000	-4.790000
	39.050233	1368.580467	9.716000	-5.080000
	39.150239	1368.532702	9.744000	-5.300000
	39.252245	1368.524342	9.760000	-4.970000
	39.350251	1368.536285	9.778000	-4.800000
	39.450256	1368.569729	9.748000	-4.620000
	39.550262	1368.569729	9.748000	-4.620000
	39.650268	1368.567341	9.718000	-4.920000
	39.750274	1368.551816	9.724000	-5.030000
	39.850279	1368.517185	9.778000	-5.190000
	39.950285	1368.530323	9.778000	-4.790000
	40.050291	1368.553016	9.752000	-4.710000
	40.150296	1368.542268	9.692000	-4.990000
	40.250302	1368.523161	9.734000	-5.060000
	40.350308	1368.494501	9.758000	-5.140000
	40.450314	1368.505250	9.762000	-4.810000
	40.550319	1368.537498	9.774000	-4.630000
	40.650325	1368.545858	9.730000	-4.830000
	40.800333	1368.535110	9.738000	-4.990000
	40.900339	1368.512421	9.722000	-5.090000
	41.000345	1368.350069	9.460000	-6.260000
	41.100351	1368.402621	9.780000	-4.460000
	41.200356	1368.456369	9.758000	-4.450000
	41.300362	1368.456369	9.758000	-4.450000
	41.400368	1368.467117	9.716000	-4.810000
	41.500373	1368.448011	9.748000	-5.060000
	41.602379	1368.366826	9.860000	-5.580000
	41.700385	1368.302357	10.038000	-5.440000
	41.800391	1368.111389	9.410000	-6.500000
	41.900396	1368.198577	9.712000	-4.170000
	42.000402	1368.241567	9.722000	-4.540000
	42.100408	1368.300088	9.718000	-4.410000
	42.200414	1368.404019	9.704000	-4.030000
	42.300419	1368.552198	9.750000	-3.660000
	42.400425	1368.570114	9.696000	-4.750000
	42.500431	1368.635818	9.708000	-4.350000
	42.600437	1368.645373	9.676000	-4.820000
	42.701442	1368.669263	9.726000	-4.700000
	42.800448	1368.718242	9.730000	-4.490000
	42.900454	1368.718242	9.730000	-4.490000
	43.000459	1368.837750	9.668000	-3.900000
	43.100465	1369.045821	9.582000	-3.160000
	43.200471	1369.105572	9.790000	-4.400000
	43.300477	1369.103182	9.640000	-4.920000
	43.400482	1369.101987	9.660000	-4.910000
	43.501488	1369.103182	9.666000	-4.890000
	43.600494	1369.098403	9.702000	-4.940000
	43.700500	1369.093624	9.706000	-4.940000
	43.800505	1369.094819	9.832000	-4.890000
	43.900511	1369.107962	9.684000	-4.790000
	44.000516	1369.111546	9.654000	-4.870000
	44.100523	1369.088847	9.648000	-5.090000
	44.200528	1369.060176	9.652000	-5.140000
	44.300534	1369.041062	9.672000	-5.060000
	44.400539	1369.030310	9.670000	-4.990000
	44.503545	1369.030310	9.670000	-4.990000
	44.599551	1369.031504	9.700000	-4.890000
	44.699557	1368.908492	9.688000	-5.930000
	44.799562	1368.968236	9.710000	-4.400000
	44.899568	1369.025593	9.680000	-4.420000
	44.999574	1369.082952	9.488000	-4.420000
	45.099579	1369.069810	9.650000	-5.010000
	45.199585	1369.042334	9.668000	-5.130000
	45.299591	1369.039944	9.718000	-4.920000
	45.401597	1369.057866	9.706000	-4.750000
	45.499602	1369.087738	9.688000	-4.650000
	45.599608	1369.102076	9.688000	-4.780000
	45.699614	1369.102076	9.688000	-4.780000
	45.799620	1369.082961	9.654000	-5.060000
	45.899625	1369.050706	9.668000	-5.170000
	45.999631	1369.036370	9.666000	-5.020000
	46.099637	1369.055487	9.708000	-4.740000
	46.199642	1369.120019	9.702000	-4.360000
	46.299648	1369.131968	9.486000	-4.800000
