LabVIEW Measurement	
Writer_Version	2
Reader_Version	2
Separator	Tab
Decimal_Separator	.
Multi_Headings	No
X_Columns	No
Time_Pref	Relative
Operator	Herve
Date	2023/06/20
Time	17:15:01.9447865486145019532
***End_of_Header***	
	
Channels	4				
Samples	2740	2740	2740	2740	
Date	1904/01/01	1904/01/01	1904/01/01	1904/01/01	
Time	09:00:00	09:00:00	09:00:00	09:00:00	
Y_Unit_Label	s	Hz	mV	°	
X_Dimension	Time	Time	Time	Time	
X0	0.0000000000000000E+0	0.0000000000000000E+0	0.0000000000000000E+0	0.0000000000000000E+0	
Delta_X	1.000000	1.000000	1.000000	1.000000	
***End_of_Header***					
X_Value	Time	Res.Frequency	Amplitude	Phase	Comment
	0.046002	1452.386868	23.158000	-5.860000
	0.146008	1452.393205	23.178000	-5.850000
	0.246014	1452.390670	23.186000	-5.920000
	0.346020	1452.400810	23.158000	-5.820000
	0.447025	1452.391938	23.210000	-5.970000
	0.546031	1452.397008	23.162000	-5.860000
	0.646037	1452.390671	23.178000	-5.950000
	0.746043	1452.391939	23.168000	-5.890000
	0.846048	1452.397008	23.170000	-5.860000
	0.946054	1452.393206	23.200000	-5.930000
	1.046060	1452.395741	23.168000	-5.880000
	1.146065	1452.397009	23.176000	-5.890000
	1.246071	1452.397009	23.176000	-5.890000
	1.346077	1452.391939	23.168000	-5.940000
	1.446083	1452.386869	23.178000	-5.940000
	1.546088	1452.388137	23.176000	-5.890000
	1.646094	1452.385602	23.164000	-5.920000
	1.752100	1452.379265	23.152000	-5.950000
	1.846106	1452.381799	23.194000	-5.880000
	1.946111	1452.377997	23.168000	-5.930000
	2.046117	1452.377997	23.162000	-5.900000
	2.146122	1452.370393	23.188000	-5.960000
	2.245128	1452.364056	23.156000	-5.950000
	2.345134	1452.369126	23.186000	-5.860000
	2.445140	1452.370393	23.180000	-5.890000
	2.545146	1452.366591	23.154000	-5.930000
	2.645151	1452.369126	23.186000	-5.880000
	2.745157	1452.369126	23.186000	-5.880000
	2.845162	1452.369126	23.190000	-5.900000
	2.945168	1452.375463	23.160000	-5.850000
	3.045174	1452.372928	23.178000	-5.920000
	3.145180	1452.365324	23.190000	-5.960000
	3.245185	1452.367859	23.176000	-5.880000
	3.345191	1452.369126	23.198000	-5.890000
	3.445197	1452.364056	23.188000	-5.940000
	3.545203	1452.366591	23.168000	-5.880000
	3.645208	1452.367859	23.208000	-5.890000
	3.745214	1452.369126	23.162000	-5.890000
	3.845220	1452.370393	23.184000	-5.890000
	3.945226	1452.360254	23.190000	-5.980000
	4.045231	1452.360254	23.160000	-5.900000
	4.145237	1452.365324	23.180000	-5.860000
	4.245243	1452.366592	23.164000	-5.890000
	4.345248	1452.364057	23.156000	-5.920000
	4.445254	1452.364057	23.156000	-5.920000
	4.545260	1452.364057	23.180000	-5.900000
	4.645266	1452.356452	23.176000	-5.960000
	4.745271	1452.355185	23.180000	-5.910000
	4.845277	1452.345046	23.188000	-5.980000
	4.945282	1452.345046	23.186000	-5.900000
	5.045289	1452.348848	23.192000	-5.870000
	5.145294	1452.337442	23.190000	-5.990000
	5.245300	1452.342512	23.160000	-5.860000
	5.345305	1452.343779	23.184000	-5.890000
	5.445311	1452.342512	23.174000	-5.910000
	5.545317	1452.348849	23.176000	-5.850000
	5.645323	1452.356454	23.184000	-5.840000
	5.745328	1452.348849	23.154000	-5.960000
	5.845334	1452.352652	23.186000	-5.870000
	5.945340	1452.352652	23.218000	-5.900000
	6.045346	1452.352652	23.218000	-5.900000
	6.145351	1452.350117	23.164000	-5.920000
	6.245357	1452.353919	23.188000	-5.870000
	6.345363	1452.350117	23.172000	-5.930000
	6.445368	1452.356454	23.158000	-5.850000
	6.545374	1452.358989	23.164000	-5.880000
	6.645380	1452.353919	23.172000	-5.940000
	6.745386	1452.353919	23.174000	-5.900000
	6.845391	1452.352652	23.164000	-5.910000
	6.945397	1452.347582	23.198000	-5.940000
	7.045403	1452.346315	23.180000	-5.910000
	7.145409	1452.341245	23.182000	-5.940000
	7.245414	1452.333641	23.176000	-5.960000
	7.345420	1452.337443	23.144000	-5.870000
	7.445426	1452.336176	23.218000	-5.910000
	7.545432	1452.331106	23.170000	-5.940000
	7.645437	1452.331106	23.170000	-5.940000
	7.745443	1452.329839	23.176000	-5.910000
	7.845448	1452.320968	23.192000	-5.970000
	7.945454	1452.318433	23.162000	-5.920000
	8.045460	1452.315898	23.182000	-5.920000
	8.147466	1452.313363	23.224000	-5.920000
	8.245471	1452.315898	23.162000	-5.880000
	8.345477	1452.323503	23.156000	-5.840000
	8.445483	1452.327305	23.188000	-5.870000
	8.545488	1452.323503	23.164000	-5.930000
	8.645494	1452.328572	23.176000	-5.860000
	8.745500	1452.327305	23.204000	-5.910000
	8.845506	1452.320968	23.174000	-5.950000
	8.945511	1452.322235	23.174000	-5.890000
	9.045517	1452.319701	23.200000	-5.920000
	9.145523	1452.315899	23.182000	-5.930000
	9.245529	1452.315899	23.182000	-5.930000
	9.345534	1452.317166	23.168000	-5.890000
	9.445540	1452.310829	23.212000	-5.950000
	9.545546	1452.299423	23.202000	-5.990000
	9.645552	1452.293086	23.176000	-5.950000
	9.745557	1452.295621	23.214000	-5.880000
	9.845563	1452.291819	23.196000	-5.930000
	9.945569	1452.294354	23.170000	-5.880000
	10.046575	1452.300691	23.196000	-5.850000
	10.145580	1452.298156	23.204000	-5.920000
	10.245586	1452.290552	23.168000	-5.960000
	10.345592	1452.293087	23.174000	-5.880000
	10.445597	1452.289285	23.206000	-5.930000
	10.545603	1452.277879	23.194000	-5.990000
	10.645609	1452.282949	23.176000	-5.860000
	10.745615	1452.282949	23.216000	-5.900000
	10.845620	1452.282949	23.216000	-5.900000
	10.945626	1452.277879	23.190000	-5.940000
	11.045631	1452.271543	23.176000	-5.950000
	11.145638	1452.280414	23.184000	-5.830000
	11.245643	1452.280414	23.216000	-5.900000
	11.345649	1452.277880	23.178000	-5.920000
	11.445654	1452.293089	23.182000	-5.780000
	11.545660	1452.293089	23.206000	-5.900000
	11.645666	1452.281683	23.164000	-5.990000
	11.745672	1452.289287	23.194000	-5.840000
	11.845677	1452.291822	23.200000	-5.880000
	11.945683	1452.282951	23.206000	-5.970000
	12.045689	1452.277881	23.190000	-5.940000
	12.145695	1452.286753	23.174000	-5.830000
	12.245700	1452.290555	23.190000	-5.870000
	12.345706	1452.288020	23.200000	-5.920000
	12.445712	1452.285486	23.166000	-5.920000
	12.545717	1452.285486	23.166000	-5.920000
	12.645723	1452.289288	23.200000	-5.870000
	12.745729	1452.284218	23.208000	-5.940000
	12.845735	1452.284218	23.182000	-5.900000
	12.945740	1452.288021	23.162000	-5.870000
	13.045746	1452.291823	23.232000	-5.870000
	13.145752	1452.285486	23.200000	-5.950000
	13.245758	1452.282951	23.172000	-5.920000
	13.345763	1452.284219	23.192000	-5.890000
	13.445769	1452.284219	23.194000	-5.900000
	13.545774	1452.277882	23.198000	-5.950000
	13.645781	1452.280417	23.184000	-5.880000
	13.745786	1452.277882	23.214000	-5.920000
	13.845792	1452.265209	23.200000	-6.000000
	13.945797	1452.267744	23.174000	-5.880000
	14.045803	1452.267744	23.174000	-5.880000
	14.145809	1452.267744	23.202000	-5.900000
	14.245815	1452.267744	23.188000	-5.900000
	14.345820	1452.266476	23.198000	-5.910000
	14.445826	1452.270279	23.182000	-5.870000
	14.545832	1452.271546	23.200000	-5.890000
	14.645838	1452.279150	23.196000	-5.840000
	14.745843	1452.275348	23.174000	-5.930000
	14.845849	1452.276616	23.162000	-5.890000
	14.945855	1452.280418	23.190000	-5.870000
	15.045860	1452.275348	23.216000	-5.940000
	15.145866	1452.271546	23.166000	-5.930000
	15.245872	1452.274081	23.184000	-5.880000
	15.345878	1452.274081	23.196000	-5.900000
	15.445883	1452.266477	23.188000	-5.960000
	15.545889	1452.266477	23.188000	-5.960000
	15.645895	1452.274081	23.154000	-5.840000
	15.745901	1452.275349	23.212000	-5.890000
	15.845906	1452.275349	23.188000	-5.900000
	15.945912	1452.274081	23.176000	-5.910000
	16.045918	1452.285488	23.202000	-5.810000
	16.145924	1452.279151	23.196000	-5.950000
	16.245929	1452.271547	23.188000	-5.960000
	16.345935	1452.277884	23.180000	-5.850000
	16.445940	1452.280419	23.210000	-5.880000
	16.545946	1452.277884	23.228000	-5.920000
	16.645952	1452.269013	23.178000	-5.970000
	16.745958	1452.275350	23.200000	-5.850000
	16.845963	1452.277885	23.196000	-5.880000
	16.945969	1452.274083	23.214000	-5.930000
	17.045975	1452.267746	23.176000	-5.950000
	17.145980	1452.272816	23.178000	-5.860000
	17.245986	1452.272816	23.178000	-5.860000
	17.345992	1452.270281	23.200000	-5.920000
	17.445998	1452.263944	23.202000	-5.950000
	17.546003	1452.265212	23.158000	-5.890000
	17.646009	1452.263944	23.196000	-5.910000
	17.746015	1452.265212	23.188000	-5.890000
	17.846021	1452.258875	23.184000	-5.950000
	17.946026	1452.270282	23.184000	-5.810000
	18.046032	1452.269014	23.214000	-5.910000
	18.146038	1452.263945	23.204000	-5.940000
	18.246044	1452.272817	23.184000	-5.830000
	18.346049	1452.282956	23.180000	-5.820000
	18.446055	1452.277886	23.216000	-5.940000
	18.548061	1452.274084	23.190000	-5.930000
	18.646066	1452.276619	23.182000	-5.880000
	18.746072	1452.276619	23.182000	-5.880000
	18.846078	1452.277886	23.220000	-5.890000
	18.946084	1452.270283	23.188000	-5.960000
	19.046089	1452.267748	23.186000	-5.920000
	19.146095	1452.275352	23.216000	-5.840000
	19.251101	1452.270283	23.226000	-5.940000
	19.346107	1452.272818	23.180000	-5.880000
	19.446112	1452.275352	23.204000	-5.880000
	19.549118	1452.269016	23.202000	-5.950000
	19.645123	1452.269016	23.202000	-5.950000
	19.745129	1452.263946	23.182000	-5.940000
	19.845135	1452.270283	23.200000	-5.850000
	19.945141	1452.266481	23.186000	-5.930000
	20.045146	1452.265214	23.178000	-5.910000
	20.145152	1452.274086	23.198000	-5.830000
	20.245158	1452.263947	23.194000	-5.980000
	20.345163	1452.265214	23.170000	-5.890000
	20.445169	1452.269017	23.178000	-5.870000
	20.545175	1452.262680	23.178000	-5.950000
	20.645181	1452.262680	23.178000	-5.950000
	20.745186	1452.263947	23.196000	-5.890000
	20.845192	1452.267749	23.200000	-5.870000
	20.945198	1452.265215	23.202000	-5.920000
	21.045204	1452.266482	23.178000	-5.890000
	21.145209	1452.272819	23.190000	-5.850000
	21.245215	1452.270284	23.254000	-5.920000
	21.345221	1452.265215	23.186000	-5.940000
	21.445227	1452.266482	23.200000	-5.890000
	21.545232	1452.265215	23.202000	-5.910000
	21.645238	1452.265215	23.202000	-5.910000
	21.745244	1452.258878	23.206000	-5.950000
	21.845249	1452.253809	23.200000	-5.940000
	21.945255	1452.244938	23.202000	-5.970000
	22.045261	1452.241136	23.184000	-5.930000
	22.145267	1452.246206	23.180000	-5.860000
	22.245272	1452.248740	23.222000	-5.880000
	22.345278	1452.242404	23.210000	-5.950000
	22.445284	1452.239869	23.186000	-5.920000
	22.545290	1452.239869	23.186000	-5.920000
	22.645295	1452.243671	23.208000	-5.870000
	22.745301	1452.234800	23.200000	-5.970000
	22.845306	1452.232265	23.170000	-5.920000
	22.945312	1452.237335	23.184000	-5.860000
	23.045318	1452.243672	23.222000	-5.850000
	23.145324	1452.238602	23.184000	-5.940000
	23.245329	1452.239870	23.184000	-5.890000
	23.345335	1452.250009	23.208000	-5.820000
	23.446341	1452.243672	23.200000	-5.950000
	23.545347	1452.238603	23.184000	-5.940000
	23.645352	1452.238603	23.184000	-5.940000
	23.745358	1452.238603	23.170000	-5.900000
	23.845364	1452.239870	23.194000	-5.890000
	23.945370	1452.238603	23.206000	-5.910000
	24.045375	1452.239870	23.176000	-5.890000
	24.145381	1452.241138	23.194000	-5.890000
	24.245387	1452.237336	23.208000	-5.930000
	24.350393	1452.233534	23.186000	-5.930000
	24.445398	1452.233534	23.186000	-5.930000
	24.545404	1452.246207	23.190000	-5.800000
	24.645410	1452.247475	23.214000	-5.890000
	24.745415	1452.246207	23.194000	-5.910000
	24.845421	1452.239871	23.192000	-5.950000
	24.945426	1452.244940	23.164000	-5.860000
	25.045433	1452.248742	23.212000	-5.870000
	25.145438	1452.244940	23.198000	-5.930000
	25.245444	1452.234802	23.190000	-5.980000
	25.345449	1452.238604	23.178000	-5.870000
	25.445455	1452.239871	23.184000	-5.890000
	25.545461	1452.241139	23.194000	-5.890000
	25.645467	1452.239871	23.226000	-5.910000
	25.745472	1452.236070	23.194000	-5.930000
	25.845478	1452.237337	23.180000	-5.890000
	25.945484	1452.246208	23.178000	-5.830000
	26.045490	1452.244941	23.200000	-5.910000
	26.145495	1452.236070	23.210000	-5.970000
	26.254501	1452.236070	23.210000	-5.970000
	26.345507	1452.224665	23.182000	-5.990000
	26.445512	1452.227199	23.170000	-5.880000
	26.545518	1452.232269	23.206000	-5.860000
	26.645524	1452.236071	23.220000	-5.870000
	26.745530	1452.229734	23.222000	-5.950000
	26.845535	1452.224665	23.174000	-5.940000
	26.945541	1452.229734	23.174000	-5.860000
	27.045547	1452.236071	23.218000	-5.850000
	27.147552	1452.241140	23.224000	-5.860000
	27.245558	1452.233537	23.210000	-5.960000
	27.345564	1452.231002	23.192000	-5.920000
	27.445570	1452.231002	23.192000	-5.920000
	27.545576	1452.233537	23.164000	-5.880000
	27.645581	1452.236071	23.222000	-5.880000
	27.746587	1452.233537	23.204000	-5.920000
	27.845592	1452.229735	23.192000	-5.930000
	27.945598	1452.238606	23.206000	-5.830000
	28.045604	1452.238606	23.200000	-5.900000
	28.145610	1452.241141	23.230000	-5.880000
	28.245615	1452.229735	23.178000	-5.990000
	28.345621	1452.237340	23.186000	-5.840000
	28.445627	1452.237340	23.186000	-5.840000
	28.545632	1452.233538	23.208000	-5.930000
	28.645638	1452.227201	23.198000	-5.950000
	28.745644	1452.224667	23.202000	-5.920000
	28.845650	1452.228469	23.208000	-5.870000
	28.945655	1452.220865	23.228000	-5.960000
	29.047661	1452.210727	23.196000	-5.980000
	29.145667	1452.211994	23.174000	-5.890000
	29.245673	1452.219598	23.184000	-5.840000
	29.345678	1452.219598	23.206000	-5.900000
	29.445684	1452.219598	23.206000	-5.900000
	29.545690	1452.206926	23.218000	-6.000000
	29.645696	1452.204391	23.172000	-5.920000
	29.745701	1452.210728	23.180000	-5.850000
	29.845707	1452.213262	23.224000	-5.880000
	29.945713	1452.209460	23.208000	-5.930000
	30.046719	1452.213262	23.166000	-5.870000
	30.145724	1452.219599	23.202000	-5.850000
	30.245730	1452.215797	23.214000	-5.930000
	30.345736	1452.214530	23.198000	-5.910000
	30.445741	1452.214530	23.198000	-5.910000
	30.545747	1452.210728	23.168000	-5.930000
	30.645753	1452.208193	23.196000	-5.920000
	30.745759	1452.211995	23.206000	-5.870000
	30.845764	1452.198056	23.202000	-6.010000
	30.945770	1452.204392	23.194000	-5.850000
	31.045775	1452.208194	23.188000	-5.870000
	31.145782	1452.209462	23.220000	-5.890000
	31.245787	1452.201858	23.174000	-5.960000
	31.345793	1452.201858	23.174000	-5.960000
	31.445798	1452.215799	23.196000	-5.790000
	31.595807	1452.220868	23.210000	-5.860000
	31.695813	1452.214532	23.212000	-5.950000
	31.795818	1452.211997	23.174000	-5.920000
	31.895824	1452.208195	23.202000	-5.930000
	31.995830	1452.204394	23.216000	-5.930000
	32.095836	1452.194256	23.220000	-5.980000
	32.195841	1452.195523	23.170000	-5.890000
	32.295847	1452.199325	23.192000	-5.870000
	32.398853	1452.199325	23.192000	-5.870000
	32.495859	1452.198057	23.216000	-5.910000
	32.595864	1452.198057	23.194000	-5.900000
	32.695870	1452.199325	23.190000	-5.890000
	32.795876	1452.200592	23.200000	-5.890000
	32.895881	1452.192989	23.196000	-5.960000
	32.995887	1452.200592	23.176000	-5.840000
	33.095893	1452.205662	23.212000	-5.860000
	33.195899	1452.203127	23.226000	-5.920000
	33.295904	1452.200593	23.186000	-5.920000
	33.396910	1452.200593	23.186000	-5.920000
	33.495916	1452.196791	23.182000	-5.930000
	33.595922	1452.200593	23.210000	-5.870000
	33.695927	1452.194256	23.218000	-5.950000
	33.795933	1452.192989	23.172000	-5.910000
	33.895938	1452.201860	23.196000	-5.830000
	33.995944	1452.203128	23.236000	-5.890000
	34.095950	1452.198058	23.212000	-5.940000
	34.195956	1452.195524	23.184000	-5.920000
	34.295961	1452.198059	23.170000	-5.880000
	34.395967	1452.198059	23.170000	-5.880000
	34.495973	1452.182852	23.608000	-6.020000
	34.595979	1452.187921	23.194000	-5.860000
	34.695984	1452.191723	23.196000	-5.870000
	34.795990	1452.194258	23.214000	-5.880000
	34.895996	1452.185387	23.198000	-5.970000
	34.996002	1452.184120	23.204000	-5.910000
	35.096007	1452.190456	23.198000	-5.850000
	35.196013	1452.214536	23.234000	-5.710000
	35.301019	1452.203131	23.234000	-5.990000
	35.396024	1452.203131	23.234000	-5.990000
	35.496030	1452.282995	23.148000	-5.270000
	35.596036	1452.212039	23.006000	-6.460000
	35.696042	1452.008094	23.390000	-7.510000
	35.796047	1452.023300	23.182000	-5.780000
	35.896053	1452.047377	23.218000	-5.710000
	35.996058	1452.051179	23.242000	-5.870000
	36.096065	1452.053713	23.208000	-5.880000
	36.196070	1452.056248	23.196000	-5.880000
	36.296076	1452.056248	23.196000	-5.880000
	36.396081	1452.065118	23.198000	-5.830000
	36.496087	1452.057515	23.240000	-5.960000
	36.597093	1452.060050	23.230000	-5.880000
	36.696099	1452.067653	23.220000	-5.840000
	36.796104	1452.075256	23.266000	-5.840000
	36.896110	1452.065119	23.252000	-5.980000
	36.996116	1452.058783	23.232000	-5.950000
	37.096122	1452.054982	23.272000	-5.930000
	37.195127	1452.051180	23.256000	-5.930000
	37.295133	1452.051180	23.256000	-5.930000
	37.395139	1452.041043	23.234000	-5.980000
	37.495144	1452.042311	23.208000	-5.890000
	37.596150	1452.033441	23.230000	-5.970000
	37.695156	1452.009367	23.278000	-6.090000
	37.795162	1451.999231	23.214000	-5.980000
	37.895167	1452.003032	23.234000	-5.870000
	37.995173	1452.009368	23.246000	-5.850000
	38.095179	1452.020772	23.208000	-5.810000
	38.195185	1452.020772	23.208000	-5.810000
	38.295190	1452.052454	23.176000	-5.650000
	38.395196	1452.087939	23.184000	-5.620000
	38.495202	1452.117087	23.230000	-5.670000
	38.595207	1452.162715	23.222000	-5.540000
	38.695213	1452.207076	23.268000	-5.550000
	38.795219	1452.227354	23.314000	-5.740000
	38.895225	1452.231156	23.332000	-5.870000
	38.995230	1452.240027	23.308000	-5.830000
	39.095236	1452.272982	23.328000	-5.640000
	39.195242	1452.297063	23.378000	-5.710000
	39.297247	1452.316075	23.376000	-5.750000
	39.395253	1452.354102	23.382000	-5.600000
	39.495259	1452.374382	23.400000	-5.740000
	39.595264	1452.397198	23.432000	-5.720000
	39.695270	1452.397198	23.432000	-5.720000
	39.795276	1452.409873	23.398000	-5.800000
	39.895282	1452.439028	23.412000	-5.670000
	39.996287	1452.461844	23.430000	-5.720000
	40.095293	1452.475788	23.484000	-5.790000
	40.195299	1452.492267	23.450000	-5.770000
	40.295305	1452.521423	23.516000	-5.670000
	40.395310	1452.541706	23.514000	-5.740000
	40.495316	1452.584810	23.900000	-5.560000
	40.595322	1452.606361	23.486000	-5.730000
	40.695327	1452.619038	23.526000	-5.800000
	40.795333	1452.621574	23.504000	-5.880000
	40.895339	1452.635519	23.498000	-5.790000
	41.001345	1452.640589	23.520000	-5.860000
	41.095350	1452.644392	23.496000	-5.870000
	41.195356	1452.644392	23.496000	-5.870000
	41.295362	1452.644392	23.482000	-5.900000
	41.395368	1452.634251	23.518000	-5.980000
	41.495373	1452.631716	23.500000	-5.920000
	41.595379	1452.634251	23.518000	-5.880000
	41.695385	1452.622843	23.516000	-5.990000
	41.795391	1452.621575	23.510000	-5.910000
	41.896396	1452.555670	23.654000	-6.420000
	41.995402	1452.485967	23.690000	-6.450000
	42.095407	1452.485967	23.690000	-6.450000
	42.195413	1452.508785	23.626000	-5.720000
	42.295419	1452.535406	23.294000	-5.690000
	42.395425	1452.573439	23.584000	-5.600000
	42.495430	1452.531613	23.486000	-6.230000
	42.595436	1452.605153	23.716000	-5.320000
	42.695442	1452.619098	23.538000	-5.790000
	42.795448	1452.606422	23.514000	-6.000000
	42.900454	1452.595014	23.546000	-5.990000
	42.995459	1452.578536	23.506000	-6.030000
	43.095465	1452.578536	23.506000	-6.030000
	43.195470	1452.570930	23.528000	-5.960000
	43.295476	1452.696490	23.244000	-4.910000
	43.395482	1452.853797	23.202000	-4.660000
	43.495488	1452.964150	23.250000	-5.030000
	43.595493	1453.041519	23.212000	-5.290000
	43.695499	1453.111279	23.248000	-5.350000
	43.795505	1453.140447	23.274000	-5.670000
	43.895511	1453.165812	23.270000	-5.700000
	43.995516	1453.173421	23.308000	-5.840000
	44.095522	1453.173421	23.308000	-5.840000
	44.195528	1453.174689	23.284000	-5.890000
	44.295533	1453.174689	23.338000	-5.900000
	44.395539	1453.170885	23.330000	-5.930000
	44.495545	1453.162008	23.326000	-5.970000
	44.595551	1453.148059	23.340000	-6.010000
	44.695556	1453.134111	23.324000	-6.010000
	44.795562	1453.130306	23.340000	-5.930000
	44.895568	1453.118894	23.318000	-5.990000
	44.995574	1453.118894	23.318000	-5.990000
	45.095579	1453.120162	23.352000	-5.890000
	45.195585	1453.107482	23.338000	-6.000000
